"File_140410_103256_120451 - RawData"
"Wavelength nm." "Abs."
200.00 0.1310
201.00 0.1140
202.00 0.0965
203.00 0.0835
204.00 0.0712
205.00 0.0607
206.00 0.0523
207.00 0.0446
208.00 0.0380
209.00 0.0322
210.00 0.0267
211.00 0.0222
212.00 0.0186
213.00 0.0154
214.00 0.0125
215.00 0.0099
216.00 0.0069
217.00 0.0048
218.00 0.0029
219.00 0.0008
220.00 -0.0010
221.00 -0.0031
222.00 -0.0049
223.00 -0.0064
224.00 -0.0077
225.00 -0.0092
226.00 -0.0107
227.00 -0.0121
228.00 -0.0135
229.00 -0.0146
230.00 -0.0157
231.00 -0.0170
232.00 -0.0179
233.00 -0.0189
234.00 -0.0196
235.00 -0.0205
236.00 -0.0207
237.00 -0.0214
238.00 -0.0220
239.00 -0.0223
240.00 -0.0228
241.00 -0.0230
242.00 -0.0231
243.00 -0.0235
244.00 -0.0235
245.00 -0.0237
246.00 -0.0237
247.00 -0.0238
248.00 -0.0240
249.00 -0.0241
250.00 -0.0240
251.00 -0.0243
252.00 -0.0241
253.00 -0.0244
254.00 -0.0241
255.00 -0.0241
256.00 -0.0238
257.00 -0.0238
258.00 -0.0237
259.00 -0.0236
260.00 -0.0238
261.00 -0.0238
262.00 -0.0238
263.00 -0.0238
264.00 -0.0237
265.00 -0.0234
266.00 -0.0235
267.00 -0.0234
268.00 -0.0234
269.00 -0.0234
270.00 -0.0233
271.00 -0.0234
272.00 -0.0235
273.00 -0.0233
274.00 -0.0233
275.00 -0.0238
276.00 -0.0236
277.00 -0.0236
278.00 -0.0238
279.00 -0.0241
280.00 -0.0241
281.00 -0.0244
282.00 -0.0244
283.00 -0.0245
284.00 -0.0245
285.00 -0.0249
286.00 -0.0251
287.00 -0.0252
288.00 -0.0256
289.00 -0.0257
290.00 -0.0259
291.00 -0.0262
292.00 -0.0262
293.00 -0.0265
294.00 -0.0270
295.00 -0.0275
296.00 -0.0271
297.00 -0.0275
298.00 -0.0277
299.00 -0.0280
300.00 -0.0283
301.00 -0.0283
302.00 -0.0283
303.00 -0.0284
304.00 -0.0288
305.00 -0.0285
306.00 -0.0280
307.00 -0.0285
308.00 -0.0284
309.00 -0.0281
310.00 -0.0281
311.00 -0.0286
312.00 -0.0290
313.00 -0.0296
314.00 -0.0290
315.00 -0.0291
316.00 -0.0295
317.00 -0.0292
318.00 -0.0288
319.00 -0.0292
320.00 -0.0285
321.00 -0.0290
322.00 -0.0288
323.00 -0.0288
324.00 -0.0292
325.00 -0.0291
326.00 -0.0291
327.00 -0.0291
328.00 -0.0292
329.00 -0.0295
330.00 -0.0288
331.00 -0.0289
332.00 -0.0295
333.00 -0.0294
334.00 -0.0290
335.00 -0.0291
336.00 -0.0296
337.00 -0.0293
338.00 -0.0292
339.00 -0.0292
340.00 -0.0292
341.00 -0.0292
342.00 -0.0294
343.00 -0.0292
344.00 -0.0292
345.00 -0.0292
346.00 -0.0292
347.00 -0.0290
348.00 -0.0290
349.00 -0.0289
350.00 -0.0287
351.00 -0.0290
352.00 -0.0292
353.00 -0.0288
354.00 -0.0290
355.00 -0.0290
356.00 -0.0291
357.00 -0.0290
358.00 -0.0291
359.00 -0.0289
360.00 -0.0289
361.00 -0.0288
362.00 -0.0290
363.00 -0.0292
364.00 -0.0289
365.00 -0.0288
366.00 -0.0287
367.00 -0.0287
368.00 -0.0285
369.00 -0.0284
370.00 -0.0285
371.00 -0.0285
372.00 -0.0284
373.00 -0.0283
374.00 -0.0285
375.00 -0.0283
376.00 -0.0282
377.00 -0.0283
378.00 -0.0284
379.00 -0.0285
380.00 -0.0286
381.00 -0.0283
382.00 -0.0282
383.00 -0.0283
384.00 -0.0283
385.00 -0.0283
386.00 -0.0283
387.00 -0.0283
388.00 -0.0282
389.00 -0.0284
390.00 -0.0282
391.00 -0.0284
392.00 -0.0283
393.00 -0.0283
394.00 -0.0283
395.00 -0.0284
396.00 -0.0284
397.00 -0.0283
398.00 -0.0282
399.00 -0.0282
400.00 -0.0280
401.00 -0.0279
402.00 -0.0280
403.00 -0.0279
404.00 -0.0281
405.00 -0.0279
406.00 -0.0279
407.00 -0.0279
408.00 -0.0279
409.00 -0.0280
410.00 -0.0280
411.00 -0.0280
412.00 -0.0279
413.00 -0.0279
414.00 -0.0279
415.00 -0.0278
416.00 -0.0281
417.00 -0.0284
418.00 -0.0284
419.00 -0.0284
420.00 -0.0283
421.00 -0.0284
422.00 -0.0284
423.00 -0.0284
424.00 -0.0285
425.00 -0.0284
426.00 -0.0284
427.00 -0.0283
428.00 -0.0284
429.00 -0.0284
430.00 -0.0283
431.00 -0.0284
432.00 -0.0284
433.00 -0.0283
434.00 -0.0282
435.00 -0.0283
436.00 -0.0283
437.00 -0.0283
438.00 -0.0283
439.00 -0.0282
440.00 -0.0282
441.00 -0.0282
442.00 -0.0282
443.00 -0.0282
444.00 -0.0282
445.00 -0.0282
446.00 -0.0281
447.00 -0.0280
448.00 -0.0280
449.00 -0.0281
450.00 -0.0281
451.00 -0.0280
452.00 -0.0280
453.00 -0.0280
454.00 -0.0281
455.00 -0.0280
456.00 -0.0280
457.00 -0.0280
458.00 -0.0280
459.00 -0.0279
460.00 -0.0280
461.00 -0.0280
462.00 -0.0279
463.00 -0.0278
464.00 -0.0279
465.00 -0.0279
466.00 -0.0279
467.00 -0.0279
468.00 -0.0278
469.00 -0.0278
470.00 -0.0278
471.00 -0.0278
472.00 -0.0278
473.00 -0.0278
474.00 -0.0278
475.00 -0.0278
476.00 -0.0278
477.00 -0.0277
478.00 -0.0277
479.00 -0.0277
480.00 -0.0277
481.00 -0.0277
482.00 -0.0276
483.00 -0.0276
484.00 -0.0275
485.00 -0.0275
486.00 -0.0274
487.00 -0.0275
488.00 -0.0275
489.00 -0.0274
490.00 -0.0273
491.00 -0.0273
492.00 -0.0273
493.00 -0.0273
494.00 -0.0272
495.00 -0.0272
496.00 -0.0271
497.00 -0.0271
498.00 -0.0271
499.00 -0.0270
500.00 -0.0270
501.00 -0.0269
502.00 -0.0269
503.00 -0.0269
504.00 -0.0269
505.00 -0.0269
506.00 -0.0268
507.00 -0.0268
508.00 -0.0267
509.00 -0.0267
510.00 -0.0266
511.00 -0.0265
512.00 -0.0264
513.00 -0.0263
514.00 -0.0264
515.00 -0.0263
516.00 -0.0262
517.00 -0.0264
518.00 -0.0263
519.00 -0.0262
520.00 -0.0262
521.00 -0.0263
522.00 -0.0262
523.00 -0.0262
524.00 -0.0263
525.00 -0.0262
526.00 -0.0262
527.00 -0.0262
528.00 -0.0260
529.00 -0.0261
530.00 -0.0260
531.00 -0.0260
532.00 -0.0260
533.00 -0.0260
534.00 -0.0260
535.00 -0.0259
536.00 -0.0258
537.00 -0.0257
538.00 -0.0257
539.00 -0.0257
540.00 -0.0256
541.00 -0.0257
542.00 -0.0256
543.00 -0.0256
544.00 -0.0255
545.00 -0.0255
546.00 -0.0254
547.00 -0.0253
548.00 -0.0252
549.00 -0.0252
550.00 -0.0252
551.00 -0.0251
552.00 -0.0251
553.00 -0.0250
554.00 -0.0250
555.00 -0.0250
556.00 -0.0250
557.00 -0.0249
558.00 -0.0249
559.00 -0.0249
560.00 -0.0248
561.00 -0.0249
562.00 -0.0248
563.00 -0.0247
564.00 -0.0247
565.00 -0.0247
566.00 -0.0246
567.00 -0.0246
568.00 -0.0246
569.00 -0.0245
570.00 -0.0244
571.00 -0.0243
572.00 -0.0243
573.00 -0.0242
574.00 -0.0241
575.00 -0.0240
576.00 -0.0240
577.00 -0.0238
578.00 -0.0237
579.00 -0.0236
580.00 -0.0234
581.00 -0.0233
582.00 -0.0230
583.00 -0.0228
584.00 -0.0227
585.00 -0.0224
586.00 -0.0222
587.00 -0.0221
588.00 -0.0219
589.00 -0.0216
590.00 -0.0213
591.00 -0.0211
592.00 -0.0209
593.00 -0.0206
594.00 -0.0203
595.00 -0.0199
596.00 -0.0195
597.00 -0.0190
598.00 -0.0185
599.00 -0.0178
600.00 -0.0173
601.00 -0.0168
602.00 -0.0164
603.00 -0.0162
604.00 -0.0160
605.00 -0.0159
606.00 -0.0157
607.00 -0.0156
608.00 -0.0156
609.00 -0.0156
610.00 -0.0155
611.00 -0.0154
612.00 -0.0154
613.00 -0.0153
614.00 -0.0153
615.00 -0.0153
616.00 -0.0153
617.00 -0.0152
618.00 -0.0151
619.00 -0.0151
620.00 -0.0150
621.00 -0.0149
622.00 -0.0149
623.00 -0.0148
624.00 -0.0147
625.00 -0.0146
626.00 -0.0146
627.00 -0.0145
628.00 -0.0144
629.00 -0.0143
630.00 -0.0143
631.00 -0.0143
632.00 -0.0142
633.00 -0.0142
634.00 -0.0140
635.00 -0.0139
636.00 -0.0138
637.00 -0.0137
638.00 -0.0137
639.00 -0.0137
640.00 -0.0135
641.00 -0.0133
642.00 -0.0133
643.00 -0.0132
644.00 -0.0130
645.00 -0.0129
646.00 -0.0128
647.00 -0.0127
648.00 -0.0126
649.00 -0.0125
650.00 -0.0124
651.00 -0.0123
652.00 -0.0121
653.00 -0.0120
654.00 -0.0117
655.00 -0.0114
656.00 -0.0111
657.00 -0.0107
658.00 -0.0104
659.00 -0.0102
660.00 -0.0099
661.00 -0.0098
662.00 -0.0098
663.00 -0.0096
664.00 -0.0096
665.00 -0.0095
666.00 -0.0095
667.00 -0.0094
668.00 -0.0093
669.00 -0.0093
670.00 -0.0092
671.00 -0.0092
672.00 -0.0092
673.00 -0.0091
674.00 -0.0090
675.00 -0.0089
676.00 -0.0088
677.00 -0.0087
678.00 -0.0086
679.00 -0.0085
680.00 -0.0084
681.00 -0.0083
682.00 -0.0081
683.00 -0.0079
684.00 -0.0076
685.00 -0.0075
686.00 -0.0073
687.00 -0.0070
688.00 -0.0068
689.00 -0.0065
690.00 -0.0061
691.00 -0.0058
692.00 -0.0055
693.00 -0.0051
694.00 -0.0045
695.00 -0.0041
696.00 -0.0038
697.00 -0.0031
698.00 -0.0026
699.00 -0.0020
700.00 -0.0013
701.00 -0.0007
702.00 0.0000
703.00 0.0007
704.00 0.0016
705.00 0.0024
706.00 0.0033
707.00 0.0042
708.00 0.0051
709.00 0.0061
710.00 0.0073
711.00 0.0087
712.00 0.0100
713.00 0.0116
714.00 0.0133
715.00 0.0150
716.00 0.0169
717.00 0.0188
718.00 0.0208
719.00 0.0230
720.00 0.0252
721.00 0.0275
722.00 0.0297
723.00 0.0320
724.00 0.0346
725.00 0.0373
726.00 0.0402
727.00 0.0433
728.00 0.0473
729.00 0.0516
730.00 0.0563
731.00 0.0611
732.00 0.0660
733.00 0.0706
734.00 0.0749
735.00 0.0789
736.00 0.0819
737.00 0.0844
738.00 0.0865
739.00 0.0880
740.00 0.0891
741.00 0.0900
742.00 0.0905
743.00 0.0909
744.00 0.0913
745.00 0.0914
746.00 0.0916
747.00 0.0919
748.00 0.0920
749.00 0.0921
750.00 0.0922
751.00 0.0924
752.00 0.0924
753.00 0.0926
754.00 0.0927
755.00 0.0927
756.00 0.0928
757.00 0.0929
758.00 0.0929
759.00 0.0929
760.00 0.0927
761.00 0.0927
762.00 0.0926
763.00 0.0925
764.00 0.0924
765.00 0.0923
766.00 0.0920
767.00 0.0917
768.00 0.0914
769.00 0.0911
770.00 0.0908
771.00 0.0904
772.00 0.0900
773.00 0.0894
774.00 0.0889
775.00 0.0884
776.00 0.0877
777.00 0.0871
778.00 0.0865
779.00 0.0858
780.00 0.0850
781.00 0.0843
782.00 0.0835
783.00 0.0826
784.00 0.0817
785.00 0.0809
786.00 0.0799
787.00 0.0790
788.00 0.0781
789.00 0.0772
790.00 0.0762
791.00 0.0752
792.00 0.0742
793.00 0.0732
794.00 0.0723
795.00 0.0714
796.00 0.0704
797.00 0.0696
798.00 0.0688
799.00 0.0679
800.00 0.0672
801.00 0.0665
802.00 0.0659
803.00 0.0655
804.00 0.0650
805.00 0.0647
806.00 0.0644
807.00 0.0643
808.00 0.0642
809.00 0.0642
810.00 0.0644
811.00 0.0647
812.00 0.0650
813.00 0.0655
814.00 0.0660
815.00 0.0666
816.00 0.0675
817.00 0.0684
818.00 0.0694
819.00 0.0706
820.00 0.0720
821.00 0.0736
822.00 0.0756
823.00 0.0781
824.00 0.0810
825.00 0.0845
826.00 0.0887
827.00 0.0936
828.00 0.0988
829.00 0.1046
830.00 0.1103
831.00 0.1158
832.00 0.1206
833.00 0.1247
834.00 0.1280
835.00 0.1309
836.00 0.1332
837.00 0.1352
838.00 0.1369
839.00 0.1384
840.00 0.1400
841.00 0.1414
842.00 0.1426
843.00 0.1440
844.00 0.1452
845.00 0.1466
846.00 0.1479
847.00 0.1493
848.00 0.1507
849.00 0.1520
850.00 0.1534
851.00 0.1546
852.00 0.1560
853.00 0.1573
854.00 0.1587
855.00 0.1599
856.00 0.1611
857.00 0.1623
858.00 0.1635
859.00 0.1647
860.00 0.1659
861.00 0.1671
862.00 0.1683
863.00 0.1697
864.00 0.1711
865.00 0.1724
866.00 0.1737
867.00 0.1752
868.00 0.1767
869.00 0.1784
870.00 0.1803
871.00 0.1820
872.00 0.1839
873.00 0.1859
874.00 0.1879
875.00 0.1901
876.00 0.1924
877.00 0.1947
878.00 0.1970
879.00 0.1994
880.00 0.2018
881.00 0.2043
882.00 0.2069
883.00 0.2095
884.00 0.2121
885.00 0.2148
886.00 0.2174
887.00 0.2199
888.00 0.2223
889.00 0.2247
890.00 0.2271
891.00 0.2295
892.00 0.2319
893.00 0.2343
894.00 0.2367
895.00 0.2391
896.00 0.2415
897.00 0.2439
898.00 0.2463
899.00 0.2488
900.00 0.2514
901.00 0.2539
902.00 0.2565
903.00 0.2593
904.00 0.2622
905.00 0.2651
906.00 0.2683
907.00 0.2716
908.00 0.2750
909.00 0.2786
910.00 0.2825
911.00 0.2867
912.00 0.2913
913.00 0.2964
914.00 0.3018
915.00 0.3075
916.00 0.3139
917.00 0.3212
918.00 0.3291
919.00 0.3380
920.00 0.3478
921.00 0.3583
922.00 0.3697
923.00 0.3820
924.00 0.3957
925.00 0.4108
926.00 0.4276
927.00 0.4459
928.00 0.4659
929.00 0.4861
930.00 0.5064
931.00 0.5276
932.00 0.5504
933.00 0.5746
934.00 0.6007
935.00 0.6279
936.00 0.6554
937.00 0.6845
938.00 0.7148
939.00 0.7452
940.00 0.7781
941.00 0.8127
942.00 0.8478
943.00 0.8855
944.00 0.9252
945.00 0.9671
946.00 1.0135
947.00 1.0623
948.00 1.1155
949.00 1.1753
950.00 1.2383
951.00 1.3047
952.00 1.3740
953.00 1.4461
954.00 1.5192
955.00 1.5894
956.00 1.6553
957.00 1.7154
958.00 1.7666
959.00 1.8098
960.00 1.8464
961.00 1.8763
962.00 1.9009
963.00 1.9208
964.00 1.9376
965.00 1.9511
966.00 1.9629
967.00 1.9728
968.00 1.9816
969.00 1.9896
970.00 1.9968
971.00 2.0028
972.00 2.0080
973.00 2.0120
974.00 2.0152
975.00 2.0170
976.00 2.0179
977.00 2.0170
978.00 2.0148
979.00 2.0113
980.00 2.0064
981.00 2.0002
982.00 1.9926
983.00 1.9837
984.00 1.9739
985.00 1.9630
986.00 1.9513
987.00 1.9385
988.00 1.9246
989.00 1.9103
990.00 1.8950
991.00 1.8788
992.00 1.8619
993.00 1.8449
994.00 1.8275
995.00 1.8089
996.00 1.7899
997.00 1.7705
998.00 1.7503
999.00 1.7300
1000.00 1.7094
1001.00 1.6880
1002.00 1.6661
1003.00 1.6442
1004.00 1.6223
1005.00 1.5997
1006.00 1.5775
1007.00 1.5547
1008.00 1.5317
1009.00 1.5079
1010.00 1.4834
1011.00 1.4579
1012.00 1.4325
1013.00 1.4084
1014.00 1.3847
1015.00 1.3612
1016.00 1.3372
1017.00 1.3123
1018.00 1.2885
1019.00 1.2649
1020.00 1.2405
1021.00 1.2169
1022.00 1.1937
1023.00 1.1692
1024.00 1.1461
1025.00 1.1237
1026.00 1.1011
1027.00 1.0793
1028.00 1.0574
1029.00 1.0357
1030.00 1.0144
1031.00 0.9932
1032.00 0.9734
1033.00 0.9541
1034.00 0.9354
1035.00 0.9167
1036.00 0.8981
1037.00 0.8801
1038.00 0.8628
1039.00 0.8460
1040.00 0.8298
1041.00 0.8139
1042.00 0.7985
1043.00 0.7837
1044.00 0.7697
1045.00 0.7561
1046.00 0.7433
1047.00 0.7308
1048.00 0.7186
1049.00 0.7071
1050.00 0.6960
1051.00 0.6853
1052.00 0.6751
1053.00 0.6656
1054.00 0.6570
1055.00 0.6490
1056.00 0.6414
1057.00 0.6343
1058.00 0.6276
1059.00 0.6216
1060.00 0.6160
1061.00 0.6111
1062.00 0.6065
1063.00 0.6025
1064.00 0.5991
1065.00 0.5962
1066.00 0.5937
1067.00 0.5915
1068.00 0.5902
1069.00 0.5893
1070.00 0.5888
1071.00 0.5888
1072.00 0.5893
1073.00 0.5903
1074.00 0.5919
1075.00 0.5941
1076.00 0.5965
1077.00 0.5995
1078.00 0.6029
1079.00 0.6069
1080.00 0.6113
1081.00 0.6164
1082.00 0.6219
1083.00 0.6278
1084.00 0.6341
1085.00 0.6409
1086.00 0.6482
1087.00 0.6558
1088.00 0.6641
1089.00 0.6729
1090.00 0.6826
1091.00 0.6926
1092.00 0.7024
1093.00 0.7125
1094.00 0.7230
1095.00 0.7339
1096.00 0.7450
1097.00 0.7561
1098.00 0.7678
1099.00 0.7794
1100.00 0.7893
