"File_140410_103256_122936 - RawData"
"Wavelength nm." "Abs."
200.00 0.0964
201.00 0.0865
202.00 0.0767
203.00 0.0684
204.00 0.0597
205.00 0.0521
206.00 0.0465
207.00 0.0403
208.00 0.0343
209.00 0.0292
210.00 0.0248
211.00 0.0204
212.00 0.0176
213.00 0.0148
214.00 0.0119
215.00 0.0086
216.00 0.0064
217.00 0.0042
218.00 0.0023
219.00 0.0002
220.00 -0.0014
221.00 -0.0033
222.00 -0.0047
223.00 -0.0060
224.00 -0.0077
225.00 -0.0088
226.00 -0.0099
227.00 -0.0114
228.00 -0.0122
229.00 -0.0131
230.00 -0.0140
231.00 -0.0150
232.00 -0.0160
233.00 -0.0167
234.00 -0.0177
235.00 -0.0181
236.00 -0.0189
237.00 -0.0193
238.00 -0.0200
239.00 -0.0205
240.00 -0.0211
241.00 -0.0216
242.00 -0.0219
243.00 -0.0224
244.00 -0.0228
245.00 -0.0233
246.00 -0.0237
247.00 -0.0237
248.00 -0.0243
249.00 -0.0245
250.00 -0.0246
251.00 -0.0251
252.00 -0.0249
253.00 -0.0250
254.00 -0.0251
255.00 -0.0254
256.00 -0.0256
257.00 -0.0257
258.00 -0.0257
259.00 -0.0258
260.00 -0.0259
261.00 -0.0262
262.00 -0.0261
263.00 -0.0261
264.00 -0.0262
265.00 -0.0261
266.00 -0.0263
267.00 -0.0263
268.00 -0.0260
269.00 -0.0262
270.00 -0.0265
271.00 -0.0265
272.00 -0.0265
273.00 -0.0267
274.00 -0.0267
275.00 -0.0267
276.00 -0.0269
277.00 -0.0272
278.00 -0.0273
279.00 -0.0272
280.00 -0.0274
281.00 -0.0272
282.00 -0.0271
283.00 -0.0273
284.00 -0.0277
285.00 -0.0278
286.00 -0.0282
287.00 -0.0282
288.00 -0.0282
289.00 -0.0284
290.00 -0.0285
291.00 -0.0284
292.00 -0.0287
293.00 -0.0287
294.00 -0.0289
295.00 -0.0289
296.00 -0.0291
297.00 -0.0293
298.00 -0.0294
299.00 -0.0297
300.00 -0.0295
301.00 -0.0298
302.00 -0.0298
303.00 -0.0298
304.00 -0.0298
305.00 -0.0297
306.00 -0.0294
307.00 -0.0296
308.00 -0.0300
309.00 -0.0294
310.00 -0.0298
311.00 -0.0301
312.00 -0.0299
313.00 -0.0298
314.00 -0.0297
315.00 -0.0296
316.00 -0.0303
317.00 -0.0300
318.00 -0.0300
319.00 -0.0296
320.00 -0.0298
321.00 -0.0296
322.00 -0.0299
323.00 -0.0297
324.00 -0.0299
325.00 -0.0300
326.00 -0.0304
327.00 -0.0299
328.00 -0.0297
329.00 -0.0302
330.00 -0.0300
331.00 -0.0301
332.00 -0.0296
333.00 -0.0296
334.00 -0.0291
335.00 -0.0295
336.00 -0.0299
337.00 -0.0299
338.00 -0.0293
339.00 -0.0297
340.00 -0.0303
341.00 -0.0300
342.00 -0.0298
343.00 -0.0294
344.00 -0.0297
345.00 -0.0295
346.00 -0.0298
347.00 -0.0299
348.00 -0.0294
349.00 -0.0295
350.00 -0.0296
351.00 -0.0298
352.00 -0.0293
353.00 -0.0296
354.00 -0.0294
355.00 -0.0298
356.00 -0.0296
357.00 -0.0297
358.00 -0.0295
359.00 -0.0295
360.00 -0.0296
361.00 -0.0293
362.00 -0.0297
363.00 -0.0294
364.00 -0.0295
365.00 -0.0290
366.00 -0.0291
367.00 -0.0294
368.00 -0.0291
369.00 -0.0290
370.00 -0.0290
371.00 -0.0289
372.00 -0.0289
373.00 -0.0291
374.00 -0.0291
375.00 -0.0291
376.00 -0.0289
377.00 -0.0289
378.00 -0.0289
379.00 -0.0291
380.00 -0.0288
381.00 -0.0287
382.00 -0.0289
383.00 -0.0290
384.00 -0.0289
385.00 -0.0289
386.00 -0.0288
387.00 -0.0289
388.00 -0.0289
389.00 -0.0289
390.00 -0.0288
391.00 -0.0288
392.00 -0.0288
393.00 -0.0287
394.00 -0.0288
395.00 -0.0288
396.00 -0.0288
397.00 -0.0287
398.00 -0.0286
399.00 -0.0286
400.00 -0.0285
401.00 -0.0287
402.00 -0.0286
403.00 -0.0286
404.00 -0.0286
405.00 -0.0286
406.00 -0.0285
407.00 -0.0285
408.00 -0.0284
409.00 -0.0285
410.00 -0.0284
411.00 -0.0284
412.00 -0.0284
413.00 -0.0286
414.00 -0.0285
415.00 -0.0285
416.00 -0.0287
417.00 -0.0290
418.00 -0.0290
419.00 -0.0290
420.00 -0.0290
421.00 -0.0290
422.00 -0.0290
423.00 -0.0290
424.00 -0.0291
425.00 -0.0291
426.00 -0.0291
427.00 -0.0290
428.00 -0.0290
429.00 -0.0290
430.00 -0.0290
431.00 -0.0290
432.00 -0.0289
433.00 -0.0289
434.00 -0.0289
435.00 -0.0289
436.00 -0.0288
437.00 -0.0288
438.00 -0.0288
439.00 -0.0289
440.00 -0.0288
441.00 -0.0288
442.00 -0.0289
443.00 -0.0290
444.00 -0.0290
445.00 -0.0287
446.00 -0.0287
447.00 -0.0287
448.00 -0.0287
449.00 -0.0286
450.00 -0.0287
451.00 -0.0287
452.00 -0.0285
453.00 -0.0286
454.00 -0.0286
455.00 -0.0287
456.00 -0.0287
457.00 -0.0286
458.00 -0.0286
459.00 -0.0285
460.00 -0.0285
461.00 -0.0285
462.00 -0.0285
463.00 -0.0285
464.00 -0.0285
465.00 -0.0285
466.00 -0.0285
467.00 -0.0285
468.00 -0.0285
469.00 -0.0284
470.00 -0.0285
471.00 -0.0285
472.00 -0.0284
473.00 -0.0284
474.00 -0.0284
475.00 -0.0284
476.00 -0.0283
477.00 -0.0283
478.00 -0.0283
479.00 -0.0283
480.00 -0.0282
481.00 -0.0283
482.00 -0.0282
483.00 -0.0282
484.00 -0.0282
485.00 -0.0281
486.00 -0.0281
487.00 -0.0281
488.00 -0.0280
489.00 -0.0280
490.00 -0.0280
491.00 -0.0280
492.00 -0.0279
493.00 -0.0278
494.00 -0.0278
495.00 -0.0278
496.00 -0.0277
497.00 -0.0277
498.00 -0.0277
499.00 -0.0278
500.00 -0.0276
501.00 -0.0276
502.00 -0.0275
503.00 -0.0276
504.00 -0.0276
505.00 -0.0275
506.00 -0.0275
507.00 -0.0274
508.00 -0.0274
509.00 -0.0273
510.00 -0.0272
511.00 -0.0270
512.00 -0.0270
513.00 -0.0269
514.00 -0.0269
515.00 -0.0269
516.00 -0.0268
517.00 -0.0269
518.00 -0.0268
519.00 -0.0268
520.00 -0.0268
521.00 -0.0267
522.00 -0.0268
523.00 -0.0268
524.00 -0.0267
525.00 -0.0267
526.00 -0.0267
527.00 -0.0267
528.00 -0.0267
529.00 -0.0266
530.00 -0.0266
531.00 -0.0266
532.00 -0.0266
533.00 -0.0266
534.00 -0.0265
535.00 -0.0265
536.00 -0.0264
537.00 -0.0262
538.00 -0.0262
539.00 -0.0262
540.00 -0.0261
541.00 -0.0261
542.00 -0.0261
543.00 -0.0260
544.00 -0.0260
545.00 -0.0260
546.00 -0.0259
547.00 -0.0258
548.00 -0.0258
549.00 -0.0258
550.00 -0.0257
551.00 -0.0257
552.00 -0.0256
553.00 -0.0256
554.00 -0.0255
555.00 -0.0255
556.00 -0.0255
557.00 -0.0254
558.00 -0.0253
559.00 -0.0254
560.00 -0.0254
561.00 -0.0253
562.00 -0.0252
563.00 -0.0252
564.00 -0.0253
565.00 -0.0252
566.00 -0.0251
567.00 -0.0251
568.00 -0.0249
569.00 -0.0250
570.00 -0.0249
571.00 -0.0249
572.00 -0.0248
573.00 -0.0247
574.00 -0.0246
575.00 -0.0245
576.00 -0.0244
577.00 -0.0243
578.00 -0.0241
579.00 -0.0240
580.00 -0.0239
581.00 -0.0237
582.00 -0.0235
583.00 -0.0234
584.00 -0.0231
585.00 -0.0229
586.00 -0.0228
587.00 -0.0226
588.00 -0.0223
589.00 -0.0221
590.00 -0.0219
591.00 -0.0216
592.00 -0.0214
593.00 -0.0211
594.00 -0.0207
595.00 -0.0203
596.00 -0.0200
597.00 -0.0195
598.00 -0.0190
599.00 -0.0184
600.00 -0.0179
601.00 -0.0174
602.00 -0.0169
603.00 -0.0167
604.00 -0.0164
605.00 -0.0163
606.00 -0.0162
607.00 -0.0161
608.00 -0.0161
609.00 -0.0161
610.00 -0.0159
611.00 -0.0160
612.00 -0.0159
613.00 -0.0158
614.00 -0.0158
615.00 -0.0158
616.00 -0.0156
617.00 -0.0156
618.00 -0.0156
619.00 -0.0155
620.00 -0.0155
621.00 -0.0154
622.00 -0.0153
623.00 -0.0153
624.00 -0.0153
625.00 -0.0151
626.00 -0.0150
627.00 -0.0150
628.00 -0.0150
629.00 -0.0149
630.00 -0.0148
631.00 -0.0147
632.00 -0.0146
633.00 -0.0145
634.00 -0.0145
635.00 -0.0145
636.00 -0.0144
637.00 -0.0143
638.00 -0.0141
639.00 -0.0141
640.00 -0.0140
641.00 -0.0138
642.00 -0.0137
643.00 -0.0136
644.00 -0.0135
645.00 -0.0135
646.00 -0.0133
647.00 -0.0132
648.00 -0.0131
649.00 -0.0131
650.00 -0.0128
651.00 -0.0128
652.00 -0.0127
653.00 -0.0125
654.00 -0.0123
655.00 -0.0120
656.00 -0.0117
657.00 -0.0113
658.00 -0.0109
659.00 -0.0107
660.00 -0.0106
661.00 -0.0104
662.00 -0.0102
663.00 -0.0102
664.00 -0.0101
665.00 -0.0100
666.00 -0.0100
667.00 -0.0100
668.00 -0.0099
669.00 -0.0098
670.00 -0.0098
671.00 -0.0098
672.00 -0.0097
673.00 -0.0096
674.00 -0.0095
675.00 -0.0094
676.00 -0.0093
677.00 -0.0092
678.00 -0.0091
679.00 -0.0089
680.00 -0.0088
681.00 -0.0086
682.00 -0.0085
683.00 -0.0084
684.00 -0.0082
685.00 -0.0080
686.00 -0.0077
687.00 -0.0075
688.00 -0.0073
689.00 -0.0069
690.00 -0.0066
691.00 -0.0063
692.00 -0.0060
693.00 -0.0055
694.00 -0.0051
695.00 -0.0046
696.00 -0.0041
697.00 -0.0036
698.00 -0.0031
699.00 -0.0025
700.00 -0.0018
701.00 -0.0011
702.00 -0.0004
703.00 0.0002
704.00 0.0011
705.00 0.0020
706.00 0.0028
707.00 0.0037
708.00 0.0046
709.00 0.0057
710.00 0.0069
711.00 0.0081
712.00 0.0095
713.00 0.0111
714.00 0.0128
715.00 0.0145
716.00 0.0163
717.00 0.0183
718.00 0.0203
719.00 0.0224
720.00 0.0246
721.00 0.0269
722.00 0.0292
723.00 0.0316
724.00 0.0341
725.00 0.0368
726.00 0.0397
727.00 0.0429
728.00 0.0466
729.00 0.0509
730.00 0.0557
731.00 0.0605
732.00 0.0655
733.00 0.0702
734.00 0.0745
735.00 0.0783
736.00 0.0815
737.00 0.0841
738.00 0.0861
739.00 0.0877
740.00 0.0888
741.00 0.0897
742.00 0.0902
743.00 0.0906
744.00 0.0909
745.00 0.0910
746.00 0.0913
747.00 0.0915
748.00 0.0916
749.00 0.0916
750.00 0.0918
751.00 0.0919
752.00 0.0921
753.00 0.0923
754.00 0.0923
755.00 0.0924
756.00 0.0925
757.00 0.0925
758.00 0.0925
759.00 0.0925
760.00 0.0923
761.00 0.0924
762.00 0.0923
763.00 0.0922
764.00 0.0920
765.00 0.0919
766.00 0.0916
767.00 0.0913
768.00 0.0911
769.00 0.0908
770.00 0.0904
771.00 0.0900
772.00 0.0895
773.00 0.0890
774.00 0.0885
775.00 0.0880
776.00 0.0872
777.00 0.0866
778.00 0.0860
779.00 0.0853
780.00 0.0846
781.00 0.0838
782.00 0.0829
783.00 0.0821
784.00 0.0813
785.00 0.0804
786.00 0.0795
787.00 0.0786
788.00 0.0776
789.00 0.0767
790.00 0.0757
791.00 0.0748
792.00 0.0738
793.00 0.0728
794.00 0.0719
795.00 0.0709
796.00 0.0700
797.00 0.0691
798.00 0.0683
799.00 0.0676
800.00 0.0668
801.00 0.0662
802.00 0.0656
803.00 0.0651
804.00 0.0645
805.00 0.0642
806.00 0.0640
807.00 0.0638
808.00 0.0637
809.00 0.0637
810.00 0.0639
811.00 0.0641
812.00 0.0645
813.00 0.0650
814.00 0.0655
815.00 0.0662
816.00 0.0670
817.00 0.0679
818.00 0.0689
819.00 0.0701
820.00 0.0715
821.00 0.0731
822.00 0.0751
823.00 0.0776
824.00 0.0804
825.00 0.0839
826.00 0.0881
827.00 0.0930
828.00 0.0983
829.00 0.1040
830.00 0.1097
831.00 0.1152
832.00 0.1203
833.00 0.1243
834.00 0.1276
835.00 0.1305
836.00 0.1328
837.00 0.1349
838.00 0.1366
839.00 0.1382
840.00 0.1396
841.00 0.1410
842.00 0.1423
843.00 0.1435
844.00 0.1448
845.00 0.1462
846.00 0.1475
847.00 0.1489
848.00 0.1501
849.00 0.1516
850.00 0.1529
851.00 0.1542
852.00 0.1555
853.00 0.1568
854.00 0.1580
855.00 0.1594
856.00 0.1606
857.00 0.1618
858.00 0.1630
859.00 0.1642
860.00 0.1654
861.00 0.1666
862.00 0.1679
863.00 0.1692
864.00 0.1705
865.00 0.1720
866.00 0.1733
867.00 0.1747
868.00 0.1763
869.00 0.1779
870.00 0.1796
871.00 0.1815
872.00 0.1834
873.00 0.1853
874.00 0.1874
875.00 0.1895
876.00 0.1918
877.00 0.1942
878.00 0.1966
879.00 0.1989
880.00 0.2014
881.00 0.2039
882.00 0.2064
883.00 0.2089
884.00 0.2117
885.00 0.2144
886.00 0.2168
887.00 0.2193
888.00 0.2217
889.00 0.2242
890.00 0.2266
891.00 0.2290
892.00 0.2315
893.00 0.2339
894.00 0.2363
895.00 0.2386
896.00 0.2410
897.00 0.2434
898.00 0.2458
899.00 0.2484
900.00 0.2508
901.00 0.2535
902.00 0.2561
903.00 0.2589
904.00 0.2617
905.00 0.2646
906.00 0.2678
907.00 0.2710
908.00 0.2745
909.00 0.2781
910.00 0.2820
911.00 0.2862
912.00 0.2908
913.00 0.2959
914.00 0.3014
915.00 0.3072
916.00 0.3137
917.00 0.3207
918.00 0.3287
919.00 0.3375
920.00 0.3472
921.00 0.3576
922.00 0.3692
923.00 0.3817
924.00 0.3954
925.00 0.4104
926.00 0.4271
927.00 0.4452
928.00 0.4650
929.00 0.4854
930.00 0.5058
931.00 0.5270
932.00 0.5496
933.00 0.5735
934.00 0.5992
935.00 0.6264
936.00 0.6537
937.00 0.6829
938.00 0.7133
939.00 0.7437
940.00 0.7767
941.00 0.8117
942.00 0.8468
943.00 0.8846
944.00 0.9243
945.00 0.9659
946.00 1.0126
947.00 1.0621
948.00 1.1156
949.00 1.1743
950.00 1.2364
951.00 1.3033
952.00 1.3728
953.00 1.4453
954.00 1.5192
955.00 1.5910
956.00 1.6562
957.00 1.7157
958.00 1.7673
959.00 1.8108
960.00 1.8479
961.00 1.8784
962.00 1.9031
963.00 1.9230
964.00 1.9400
965.00 1.9534
966.00 1.9651
967.00 1.9753
968.00 1.9841
969.00 1.9921
970.00 1.9991
971.00 2.0053
972.00 2.0105
973.00 2.0145
974.00 2.0175
975.00 2.0193
976.00 2.0203
977.00 2.0196
978.00 2.0172
979.00 2.0135
980.00 2.0088
981.00 2.0025
982.00 1.9949
983.00 1.9857
984.00 1.9760
985.00 1.9650
986.00 1.9533
987.00 1.9404
988.00 1.9266
989.00 1.9122
990.00 1.8968
991.00 1.8806
992.00 1.8639
993.00 1.8464
994.00 1.8288
995.00 1.8104
996.00 1.7912
997.00 1.7713
998.00 1.7514
999.00 1.7309
1000.00 1.7101
1001.00 1.6887
1002.00 1.6669
1003.00 1.6451
1004.00 1.6228
1005.00 1.6001
1006.00 1.5777
1007.00 1.5551
1008.00 1.5320
1009.00 1.5084
1010.00 1.4841
1011.00 1.4587
1012.00 1.4332
1013.00 1.4092
1014.00 1.3852
1015.00 1.3617
1016.00 1.3378
1017.00 1.3132
1018.00 1.2893
1019.00 1.2658
1020.00 1.2416
1021.00 1.2177
1022.00 1.1945
1023.00 1.1700
1024.00 1.1465
1025.00 1.1241
1026.00 1.1014
1027.00 1.0794
1028.00 1.0572
1029.00 1.0354
1030.00 1.0141
1031.00 0.9930
1032.00 0.9730
1033.00 0.9535
1034.00 0.9347
1035.00 0.9160
1036.00 0.8974
1037.00 0.8793
1038.00 0.8620
1039.00 0.8455
1040.00 0.8295
1041.00 0.8138
1042.00 0.7982
1043.00 0.7833
1044.00 0.7692
1045.00 0.7554
1046.00 0.7426
1047.00 0.7303
1048.00 0.7184
1049.00 0.7067
1050.00 0.6956
1051.00 0.6848
1052.00 0.6747
1053.00 0.6653
1054.00 0.6568
1055.00 0.6486
1056.00 0.6410
1057.00 0.6338
1058.00 0.6273
1059.00 0.6213
1060.00 0.6156
1061.00 0.6106
1062.00 0.6060
1063.00 0.6020
1064.00 0.5985
1065.00 0.5956
1066.00 0.5931
1067.00 0.5911
1068.00 0.5896
1069.00 0.5887
1070.00 0.5880
1071.00 0.5882
1072.00 0.5887
1073.00 0.5897
1074.00 0.5912
1075.00 0.5932
1076.00 0.5959
1077.00 0.5988
1078.00 0.6022
1079.00 0.6060
1080.00 0.6105
1081.00 0.6156
1082.00 0.6211
1083.00 0.6271
1084.00 0.6334
1085.00 0.6403
1086.00 0.6475
1087.00 0.6552
1088.00 0.6635
1089.00 0.6723
1090.00 0.6818
1091.00 0.6918
1092.00 0.7017
1093.00 0.7117
1094.00 0.7222
1095.00 0.7331
1096.00 0.7444
1097.00 0.7552
1098.00 0.7669
1099.00 0.7787
1100.00 0.7890
