"File_140410_103256_144003 - RawData"
"Wavelength nm." "Abs."
200.00 0.0012
201.00 -0.0007
202.00 -0.0002
203.00 -0.0007
204.00 -0.0011
205.00 -0.0005
206.00 -0.0002
207.00 0.0001
208.00 -0.0001
209.00 -0.0007
210.00 -0.0003
211.00 -0.0003
212.00 -0.0001
213.00 -0.0001
214.00 -0.0001
215.00 -0.0002
216.00 -0.0003
217.00 -0.0004
218.00 -0.0002
219.00 -0.0002
220.00 -0.0002
221.00 -0.0001
222.00 -0.0002
223.00 -0.0002
224.00 0.0000
225.00 -0.0003
226.00 -0.0002
227.00 -0.0001
228.00 0.0000
229.00 -0.0004
230.00 -0.0003
231.00 -0.0002
232.00 -0.0003
233.00 -0.0001
234.00 -0.0003
235.00 -0.0003
236.00 -0.0002
237.00 -0.0003
238.00 -0.0002
239.00 -0.0002
240.00 -0.0002
241.00 -0.0004
242.00 -0.0002
243.00 -0.0001
244.00 -0.0003
245.00 -0.0002
246.00 -0.0002
247.00 -0.0004
248.00 -0.0002
249.00 -0.0002
250.00 -0.0001
251.00 -0.0003
252.00 -0.0003
253.00 -0.0002
254.00 -0.0002
255.00 -0.0003
256.00 -0.0001
257.00 -0.0001
258.00 -0.0002
259.00 -0.0002
260.00 -0.0003
261.00 -0.0002
262.00 -0.0003
263.00 -0.0001
264.00 -0.0002
265.00 -0.0001
266.00 -0.0001
267.00 -0.0003
268.00 -0.0003
269.00 -0.0002
270.00 -0.0002
271.00 -0.0003
272.00 -0.0002
273.00 -0.0002
274.00 -0.0003
275.00 -0.0002
276.00 -0.0001
277.00 -0.0002
278.00 -0.0002
279.00 -0.0003
280.00 -0.0003
281.00 -0.0002
282.00 -0.0002
283.00 -0.0001
284.00 -0.0002
285.00 -0.0002
286.00 -0.0001
287.00 -0.0001
288.00 -0.0002
289.00 -0.0004
290.00 -0.0002
291.00 -0.0002
292.00 -0.0002
293.00 -0.0004
294.00 -0.0003
295.00 -0.0002
296.00 -0.0001
297.00 0.0000
298.00 0.0001
299.00 -0.0001
300.00 -0.0002
301.00 -0.0001
302.00 -0.0001
303.00 -0.0003
304.00 -0.0001
305.00 -0.0000
306.00 0.0000
307.00 0.0000
308.00 -0.0000
309.00 -0.0001
310.00 -0.0004
311.00 -0.0004
312.00 -0.0004
313.00 0.0003
314.00 0.0000
315.00 0.0000
316.00 0.0001
317.00 0.0003
318.00 0.0001
319.00 -0.0000
320.00 -0.0001
321.00 -0.0003
322.00 -0.0002
323.00 -0.0003
324.00 -0.0003
325.00 -0.0002
326.00 -0.0004
327.00 -0.0004
328.00 -0.0000
329.00 0.0001
330.00 -0.0001
331.00 -0.0001
332.00 -0.0003
333.00 -0.0002
334.00 -0.0002
335.00 0.0000
336.00 -0.0001
337.00 0.0000
338.00 -0.0002
339.00 -0.0003
340.00 -0.0004
341.00 -0.0002
342.00 -0.0002
343.00 -0.0006
344.00 -0.0002
345.00 -0.0001
346.00 -0.0001
347.00 -0.0003
348.00 -0.0005
349.00 -0.0004
350.00 -0.0003
351.00 -0.0002
352.00 0.0000
353.00 -0.0001
354.00 -0.0001
355.00 -0.0000
356.00 -0.0001
357.00 -0.0002
358.00 -0.0002
359.00 -0.0000
360.00 -0.0001
361.00 -0.0003
362.00 -0.0003
363.00 -0.0002
364.00 -0.0002
365.00 -0.0003
366.00 -0.0003
367.00 -0.0000
368.00 -0.0001
369.00 -0.0003
370.00 -0.0000
371.00 -0.0001
372.00 0.0001
373.00 -0.0001
374.00 -0.0002
375.00 -0.0001
376.00 -0.0000
377.00 -0.0002
378.00 -0.0002
379.00 -0.0003
380.00 -0.0002
381.00 -0.0001
382.00 -0.0001
383.00 -0.0002
384.00 -0.0002
385.00 -0.0001
386.00 -0.0002
387.00 -0.0002
388.00 -0.0002
389.00 -0.0001
390.00 -0.0002
391.00 -0.0002
392.00 -0.0001
393.00 -0.0002
394.00 -0.0003
395.00 -0.0002
396.00 -0.0002
397.00 -0.0001
398.00 -0.0002
399.00 -0.0002
400.00 -0.0002
401.00 -0.0002
402.00 -0.0003
403.00 -0.0002
404.00 -0.0001
405.00 -0.0002
406.00 -0.0002
407.00 -0.0003
408.00 -0.0002
409.00 -0.0002
410.00 -0.0002
411.00 -0.0002
412.00 -0.0002
413.00 -0.0002
414.00 -0.0002
415.00 -0.0002
416.00 -0.0002
417.00 -0.0002
418.00 -0.0002
419.00 -0.0002
420.00 -0.0002
421.00 -0.0002
422.00 -0.0002
423.00 -0.0002
424.00 -0.0001
425.00 -0.0001
426.00 -0.0001
427.00 -0.0001
428.00 -0.0002
429.00 -0.0002
430.00 -0.0002
431.00 -0.0001
432.00 -0.0002
433.00 -0.0002
434.00 -0.0002
435.00 -0.0002
436.00 -0.0002
437.00 -0.0002
438.00 -0.0002
439.00 -0.0002
440.00 -0.0002
441.00 -0.0002
442.00 -0.0002
443.00 -0.0002
444.00 -0.0002
445.00 -0.0002
446.00 -0.0002
447.00 -0.0002
448.00 -0.0002
449.00 -0.0002
450.00 -0.0002
451.00 -0.0002
452.00 -0.0002
453.00 -0.0002
454.00 -0.0002
455.00 -0.0002
456.00 -0.0002
457.00 -0.0002
458.00 -0.0002
459.00 -0.0002
460.00 -0.0002
461.00 -0.0002
462.00 -0.0002
463.00 -0.0002
464.00 -0.0002
465.00 -0.0002
466.00 -0.0002
467.00 -0.0002
468.00 -0.0002
469.00 -0.0002
470.00 -0.0001
471.00 -0.0002
472.00 -0.0002
473.00 -0.0002
474.00 -0.0002
475.00 -0.0002
476.00 -0.0002
477.00 -0.0002
478.00 -0.0002
479.00 -0.0002
480.00 -0.0002
481.00 -0.0002
482.00 -0.0002
483.00 -0.0002
484.00 -0.0001
485.00 -0.0001
486.00 -0.0001
487.00 -0.0001
488.00 -0.0002
489.00 -0.0002
490.00 -0.0002
491.00 -0.0002
492.00 -0.0002
493.00 -0.0002
494.00 -0.0002
495.00 -0.0001
496.00 -0.0002
497.00 -0.0002
498.00 -0.0001
499.00 -0.0002
500.00 -0.0002
501.00 -0.0002
502.00 -0.0002
503.00 -0.0001
504.00 -0.0002
505.00 -0.0002
506.00 -0.0001
507.00 -0.0001
508.00 -0.0002
509.00 -0.0001
510.00 -0.0001
511.00 -0.0002
512.00 -0.0001
513.00 -0.0001
514.00 -0.0001
515.00 -0.0001
516.00 -0.0001
517.00 -0.0002
518.00 -0.0001
519.00 -0.0001
520.00 -0.0001
521.00 -0.0002
522.00 -0.0002
523.00 -0.0002
524.00 -0.0001
525.00 -0.0001
526.00 -0.0001
527.00 -0.0001
528.00 -0.0000
529.00 -0.0001
530.00 -0.0001
531.00 -0.0001
532.00 -0.0001
533.00 -0.0000
534.00 -0.0001
535.00 -0.0001
536.00 -0.0001
537.00 -0.0001
538.00 -0.0001
539.00 -0.0001
540.00 -0.0001
541.00 -0.0001
542.00 -0.0000
543.00 -0.0000
544.00 -0.0001
545.00 -0.0001
546.00 -0.0001
547.00 -0.0001
548.00 -0.0001
549.00 -0.0000
550.00 -0.0000
551.00 0.0000
552.00 -0.0000
553.00 -0.0001
554.00 -0.0001
555.00 -0.0001
556.00 -0.0001
557.00 -0.0001
558.00 -0.0001
559.00 -0.0001
560.00 -0.0000
561.00 -0.0000
562.00 -0.0001
563.00 -0.0001
564.00 0.0000
565.00 0.0000
566.00 0.0000
567.00 -0.0000
568.00 -0.0001
569.00 -0.0001
570.00 -0.0001
571.00 -0.0000
572.00 -0.0001
573.00 -0.0001
574.00 0.0000
575.00 -0.0000
576.00 -0.0001
577.00 -0.0000
578.00 0.0000
579.00 -0.0000
580.00 -0.0000
581.00 -0.0000
582.00 -0.0001
583.00 -0.0001
584.00 -0.0000
585.00 -0.0000
586.00 -0.0001
587.00 -0.0001
588.00 -0.0000
589.00 -0.0000
590.00 -0.0000
591.00 -0.0001
592.00 -0.0000
593.00 -0.0000
594.00 -0.0000
595.00 0.0000
596.00 0.0000
597.00 -0.0001
598.00 -0.0000
599.00 0.0000
600.00 0.0000
601.00 0.0000
602.00 0.0000
603.00 -0.0000
604.00 -0.0000
605.00 0.0000
606.00 -0.0001
607.00 -0.0000
608.00 -0.0000
609.00 -0.0000
610.00 0.0000
611.00 0.0000
612.00 0.0000
613.00 -0.0000
614.00 -0.0000
615.00 0.0000
616.00 0.0000
617.00 -0.0000
618.00 0.0000
619.00 0.0000
620.00 0.0000
621.00 0.0000
622.00 0.0000
623.00 0.0000
624.00 -0.0001
625.00 -0.0000
626.00 -0.0001
627.00 -0.0000
628.00 0.0000
629.00 -0.0002
630.00 -0.0002
631.00 -0.0000
632.00 -0.0000
633.00 0.0000
634.00 -0.0000
635.00 0.0000
636.00 -0.0001
637.00 -0.0000
638.00 0.0000
639.00 -0.0000
640.00 -0.0001
641.00 -0.0000
642.00 -0.0001
643.00 -0.0001
644.00 -0.0001
645.00 0.0000
646.00 0.0000
647.00 -0.0000
648.00 -0.0000
649.00 -0.0001
650.00 -0.0000
651.00 0.0000
652.00 -0.0000
653.00 -0.0001
654.00 -0.0001
655.00 0.0000
656.00 -0.0000
657.00 -0.0001
658.00 -0.0000
659.00 0.0000
660.00 -0.0000
661.00 -0.0000
662.00 0.0000
663.00 0.0000
664.00 -0.0000
665.00 -0.0000
666.00 0.0000
667.00 0.0001
668.00 0.0000
669.00 0.0000
670.00 -0.0000
671.00 -0.0000
672.00 -0.0001
673.00 -0.0001
674.00 0.0000
675.00 -0.0000
676.00 -0.0000
677.00 -0.0000
678.00 -0.0002
679.00 -0.0001
680.00 -0.0000
681.00 -0.0000
682.00 -0.0000
683.00 0.0000
684.00 -0.0001
685.00 -0.0001
686.00 -0.0002
687.00 -0.0001
688.00 -0.0001
689.00 -0.0001
690.00 -0.0001
691.00 -0.0001
692.00 -0.0001
693.00 -0.0001
694.00 -0.0001
695.00 -0.0001
696.00 -0.0001
697.00 -0.0000
698.00 -0.0001
699.00 -0.0002
700.00 -0.0002
701.00 -0.0001
702.00 -0.0001
703.00 -0.0001
704.00 -0.0000
705.00 -0.0001
706.00 -0.0001
707.00 -0.0002
708.00 -0.0001
709.00 -0.0001
710.00 -0.0000
711.00 -0.0002
712.00 -0.0001
713.00 -0.0001
714.00 0.0000
715.00 -0.0002
716.00 -0.0002
717.00 -0.0001
718.00 -0.0000
719.00 -0.0002
720.00 -0.0001
721.00 -0.0001
722.00 -0.0001
723.00 0.0000
724.00 -0.0001
725.00 -0.0001
726.00 -0.0001
727.00 -0.0002
728.00 -0.0002
729.00 -0.0002
730.00 -0.0002
731.00 -0.0002
732.00 -0.0003
733.00 -0.0003
734.00 -0.0003
735.00 -0.0002
736.00 -0.0003
737.00 -0.0003
738.00 -0.0004
739.00 -0.0002
740.00 -0.0003
741.00 -0.0003
742.00 -0.0003
743.00 -0.0003
744.00 -0.0003
745.00 -0.0002
746.00 -0.0002
747.00 -0.0003
748.00 -0.0004
749.00 -0.0003
750.00 -0.0002
751.00 -0.0002
752.00 -0.0002
753.00 -0.0002
754.00 -0.0002
755.00 -0.0002
756.00 -0.0002
757.00 -0.0002
758.00 -0.0002
759.00 -0.0002
760.00 -0.0001
761.00 -0.0001
762.00 -0.0002
763.00 -0.0002
764.00 -0.0002
765.00 -0.0002
766.00 -0.0002
767.00 -0.0002
768.00 -0.0002
769.00 -0.0001
770.00 -0.0000
771.00 -0.0002
772.00 -0.0001
773.00 -0.0001
774.00 -0.0001
775.00 -0.0000
776.00 -0.0001
777.00 -0.0000
778.00 -0.0000
779.00 -0.0001
780.00 -0.0001
781.00 -0.0000
782.00 -0.0000
783.00 -0.0000
784.00 0.0000
785.00 0.0000
786.00 0.0000
787.00 -0.0001
788.00 -0.0000
789.00 0.0000
790.00 0.0000
791.00 -0.0000
792.00 -0.0000
793.00 0.0000
794.00 -0.0000
795.00 -0.0000
796.00 -0.0000
797.00 0.0000
798.00 0.0000
799.00 0.0000
800.00 0.0000
801.00 0.0000
802.00 0.0000
803.00 -0.0000
804.00 0.0000
805.00 0.0000
806.00 0.0000
807.00 0.0000
808.00 -0.0001
809.00 -0.0000
810.00 0.0000
811.00 0.0000
812.00 0.0001
813.00 0.0000
814.00 0.0000
815.00 0.0000
816.00 -0.0000
817.00 0.0001
818.00 0.0000
819.00 0.0000
820.00 0.0000
821.00 0.0000
822.00 -0.0000
823.00 -0.0000
824.00 0.0000
825.00 -0.0001
826.00 0.0000
827.00 -0.0001
828.00 -0.0001
829.00 -0.0001
830.00 -0.0001
831.00 -0.0002
832.00 -0.0001
833.00 -0.0001
834.00 -0.0000
835.00 -0.0000
836.00 -0.0001
837.00 -0.0001
838.00 -0.0001
839.00 -0.0002
840.00 -0.0002
841.00 -0.0001
842.00 -0.0001
843.00 -0.0001
844.00 -0.0001
845.00 -0.0001
846.00 -0.0001
847.00 -0.0001
848.00 -0.0001
849.00 -0.0000
850.00 -0.0000
851.00 -0.0001
852.00 -0.0000
853.00 0.0000
854.00 -0.0000
855.00 -0.0001
856.00 0.0001
857.00 0.0000
858.00 0.0000
859.00 0.0000
860.00 0.0001
861.00 0.0000
862.00 0.0001
863.00 0.0000
864.00 0.0000
865.00 0.0001
866.00 0.0001
867.00 0.0000
868.00 0.0001
869.00 0.0001
870.00 0.0001
871.00 0.0000
872.00 0.0001
873.00 0.0002
874.00 0.0001
875.00 0.0001
876.00 0.0001
877.00 0.0001
878.00 0.0001
879.00 -0.0000
880.00 0.0001
881.00 0.0001
882.00 0.0001
883.00 0.0001
884.00 0.0001
885.00 0.0000
886.00 0.0000
887.00 0.0001
888.00 0.0001
889.00 0.0000
890.00 0.0000
891.00 0.0001
892.00 0.0002
893.00 0.0001
894.00 0.0001
895.00 0.0000
896.00 0.0001
897.00 0.0000
898.00 0.0001
899.00 0.0001
900.00 0.0000
901.00 0.0002
902.00 0.0001
903.00 0.0000
904.00 0.0001
905.00 0.0000
906.00 0.0000
907.00 0.0001
908.00 0.0000
909.00 0.0001
910.00 0.0001
911.00 0.0000
912.00 0.0000
913.00 -0.0000
914.00 0.0000
915.00 -0.0001
916.00 -0.0000
917.00 -0.0001
918.00 -0.0001
919.00 -0.0002
920.00 -0.0002
921.00 -0.0003
922.00 -0.0003
923.00 -0.0003
924.00 -0.0002
925.00 -0.0004
926.00 -0.0003
927.00 -0.0004
928.00 -0.0005
929.00 -0.0006
930.00 -0.0005
931.00 -0.0007
932.00 -0.0006
933.00 -0.0007
934.00 -0.0008
935.00 -0.0009
936.00 -0.0010
937.00 -0.0010
938.00 -0.0010
939.00 -0.0010
940.00 -0.0012
941.00 -0.0012
942.00 -0.0013
943.00 -0.0013
944.00 -0.0014
945.00 -0.0014
946.00 -0.0015
947.00 -0.0017
948.00 -0.0016
949.00 -0.0016
950.00 -0.0018
951.00 -0.0019
952.00 -0.0019
953.00 -0.0023
954.00 -0.0024
955.00 -0.0025
956.00 -0.0028
957.00 -0.0030
958.00 -0.0029
959.00 -0.0031
960.00 -0.0031
961.00 -0.0032
962.00 -0.0035
963.00 -0.0034
964.00 -0.0035
965.00 -0.0032
966.00 -0.0031
967.00 -0.0033
968.00 -0.0034
969.00 -0.0029
970.00 -0.0032
971.00 -0.0026
972.00 -0.0030
973.00 -0.0029
974.00 -0.0027
975.00 -0.0024
976.00 -0.0025
977.00 -0.0027
978.00 -0.0027
979.00 -0.0022
980.00 -0.0020
981.00 -0.0023
982.00 -0.0019
983.00 -0.0016
984.00 -0.0015
985.00 -0.0011
986.00 -0.0013
987.00 -0.0012
988.00 -0.0013
989.00 -0.0013
990.00 -0.0012
991.00 -0.0007
992.00 -0.0006
993.00 -0.0006
994.00 -0.0004
995.00 -0.0005
996.00 -0.0005
997.00 -0.0000
998.00 0.0001
999.00 -0.0001
1000.00 0.0002
1001.00 0.0002
1002.00 0.0003
1003.00 0.0004
1004.00 0.0003
1005.00 0.0004
1006.00 0.0005
1007.00 0.0006
1008.00 0.0007
1009.00 0.0007
1010.00 0.0007
1011.00 0.0007
1012.00 0.0007
1013.00 0.0008
1014.00 0.0010
1015.00 0.0009
1016.00 0.0010
1017.00 0.0011
1018.00 0.0010
1019.00 0.0011
1020.00 0.0011
1021.00 0.0013
1022.00 0.0012
1023.00 0.0011
1024.00 0.0012
1025.00 0.0013
1026.00 0.0013
1027.00 0.0013
1028.00 0.0012
1029.00 0.0012
1030.00 0.0013
1031.00 0.0014
1032.00 0.0014
1033.00 0.0014
1034.00 0.0013
1035.00 0.0012
1036.00 0.0013
1037.00 0.0013
1038.00 0.0014
1039.00 0.0013
1040.00 0.0013
1041.00 0.0013
1042.00 0.0012
1043.00 0.0011
1044.00 0.0012
1045.00 0.0013
1046.00 0.0012
1047.00 0.0011
1048.00 0.0010
1049.00 0.0011
1050.00 0.0011
1051.00 0.0011
1052.00 0.0011
1053.00 0.0012
1054.00 0.0011
1055.00 0.0011
1056.00 0.0011
1057.00 0.0011
1058.00 0.0011
1059.00 0.0010
1060.00 0.0010
1061.00 0.0010
1062.00 0.0010
1063.00 0.0010
1064.00 0.0009
1065.00 0.0009
1066.00 0.0009
1067.00 0.0009
1068.00 0.0009
1069.00 0.0008
1070.00 0.0007
1071.00 0.0007
1072.00 0.0008
1073.00 0.0008
1074.00 0.0008
1075.00 0.0007
1076.00 0.0007
1077.00 0.0007
1078.00 0.0007
1079.00 0.0008
1080.00 0.0008
1081.00 0.0007
1082.00 0.0006
1083.00 0.0007
1084.00 0.0005
1085.00 0.0006
1086.00 0.0006
1087.00 0.0007
1088.00 0.0007
1089.00 0.0006
1090.00 0.0006
1091.00 0.0006
1092.00 0.0005
1093.00 0.0006
1094.00 0.0006
1095.00 0.0006
1096.00 0.0005
1097.00 0.0005
1098.00 0.0004
1099.00 0.0005
1100.00 0.0003
