"File_140410_103256_151517 - RawData"
"Wavelength nm." "Abs."
200.00 0.1224
201.00 0.1037
202.00 0.0851
203.00 0.0707
204.00 0.0579
205.00 0.0471
206.00 0.0381
207.00 0.0298
208.00 0.0231
209.00 0.0167
210.00 0.0114
211.00 0.0073
212.00 0.0036
213.00 0.0006
214.00 -0.0025
215.00 -0.0049
216.00 -0.0069
217.00 -0.0092
218.00 -0.0109
219.00 -0.0128
220.00 -0.0141
221.00 -0.0152
222.00 -0.0168
223.00 -0.0177
224.00 -0.0184
225.00 -0.0197
226.00 -0.0209
227.00 -0.0215
228.00 -0.0225
229.00 -0.0231
230.00 -0.0239
231.00 -0.0251
232.00 -0.0254
233.00 -0.0260
234.00 -0.0267
235.00 -0.0271
236.00 -0.0276
237.00 -0.0281
238.00 -0.0286
239.00 -0.0290
240.00 -0.0293
241.00 -0.0297
242.00 -0.0302
243.00 -0.0306
244.00 -0.0309
245.00 -0.0309
246.00 -0.0311
247.00 -0.0315
248.00 -0.0319
249.00 -0.0321
250.00 -0.0324
251.00 -0.0324
252.00 -0.0325
253.00 -0.0328
254.00 -0.0329
255.00 -0.0333
256.00 -0.0332
257.00 -0.0331
258.00 -0.0333
259.00 -0.0334
260.00 -0.0334
261.00 -0.0335
262.00 -0.0337
263.00 -0.0339
264.00 -0.0337
265.00 -0.0337
266.00 -0.0338
267.00 -0.0336
268.00 -0.0338
269.00 -0.0335
270.00 -0.0335
271.00 -0.0337
272.00 -0.0339
273.00 -0.0336
274.00 -0.0336
275.00 -0.0339
276.00 -0.0337
277.00 -0.0336
278.00 -0.0338
279.00 -0.0335
280.00 -0.0336
281.00 -0.0335
282.00 -0.0337
283.00 -0.0337
284.00 -0.0337
285.00 -0.0337
286.00 -0.0332
287.00 -0.0335
288.00 -0.0334
289.00 -0.0334
290.00 -0.0335
291.00 -0.0336
292.00 -0.0336
293.00 -0.0336
294.00 -0.0332
295.00 -0.0331
296.00 -0.0332
297.00 -0.0330
298.00 -0.0332
299.00 -0.0334
300.00 -0.0333
301.00 -0.0333
302.00 -0.0333
303.00 -0.0331
304.00 -0.0328
305.00 -0.0326
306.00 -0.0321
307.00 -0.0326
308.00 -0.0325
309.00 -0.0323
310.00 -0.0325
311.00 -0.0319
312.00 -0.0319
313.00 -0.0320
314.00 -0.0325
315.00 -0.0323
316.00 -0.0317
317.00 -0.0323
318.00 -0.0325
319.00 -0.0323
320.00 -0.0318
321.00 -0.0314
322.00 -0.0317
323.00 -0.0318
324.00 -0.0319
325.00 -0.0316
326.00 -0.0320
327.00 -0.0314
328.00 -0.0316
329.00 -0.0322
330.00 -0.0318
331.00 -0.0319
332.00 -0.0318
333.00 -0.0319
334.00 -0.0318
335.00 -0.0319
336.00 -0.0319
337.00 -0.0320
338.00 -0.0314
339.00 -0.0314
340.00 -0.0320
341.00 -0.0317
342.00 -0.0317
343.00 -0.0317
344.00 -0.0312
345.00 -0.0315
346.00 -0.0318
347.00 -0.0315
348.00 -0.0316
349.00 -0.0316
350.00 -0.0314
351.00 -0.0313
352.00 -0.0314
353.00 -0.0313
354.00 -0.0314
355.00 -0.0314
356.00 -0.0314
357.00 -0.0311
358.00 -0.0310
359.00 -0.0313
360.00 -0.0315
361.00 -0.0312
362.00 -0.0310
363.00 -0.0312
364.00 -0.0310
365.00 -0.0308
366.00 -0.0306
367.00 -0.0305
368.00 -0.0304
369.00 -0.0306
370.00 -0.0305
371.00 -0.0304
372.00 -0.0306
373.00 -0.0303
374.00 -0.0303
375.00 -0.0305
376.00 -0.0306
377.00 -0.0304
378.00 -0.0304
379.00 -0.0305
380.00 -0.0303
381.00 -0.0303
382.00 -0.0303
383.00 -0.0304
384.00 -0.0304
385.00 -0.0303
386.00 -0.0303
387.00 -0.0302
388.00 -0.0304
389.00 -0.0303
390.00 -0.0302
391.00 -0.0303
392.00 -0.0303
393.00 -0.0303
394.00 -0.0302
395.00 -0.0303
396.00 -0.0302
397.00 -0.0302
398.00 -0.0302
399.00 -0.0300
400.00 -0.0301
401.00 -0.0300
402.00 -0.0300
403.00 -0.0300
404.00 -0.0299
405.00 -0.0299
406.00 -0.0300
407.00 -0.0300
408.00 -0.0300
409.00 -0.0300
410.00 -0.0300
411.00 -0.0299
412.00 -0.0299
413.00 -0.0299
414.00 -0.0299
415.00 -0.0298
416.00 -0.0301
417.00 -0.0304
418.00 -0.0304
419.00 -0.0304
420.00 -0.0304
421.00 -0.0304
422.00 -0.0304
423.00 -0.0304
424.00 -0.0303
425.00 -0.0303
426.00 -0.0303
427.00 -0.0302
428.00 -0.0302
429.00 -0.0302
430.00 -0.0303
431.00 -0.0303
432.00 -0.0302
433.00 -0.0302
434.00 -0.0302
435.00 -0.0302
436.00 -0.0302
437.00 -0.0301
438.00 -0.0301
439.00 -0.0300
440.00 -0.0301
441.00 -0.0301
442.00 -0.0300
443.00 -0.0300
444.00 -0.0300
445.00 -0.0299
446.00 -0.0300
447.00 -0.0300
448.00 -0.0299
449.00 -0.0300
450.00 -0.0299
451.00 -0.0299
452.00 -0.0299
453.00 -0.0298
454.00 -0.0298
455.00 -0.0298
456.00 -0.0299
457.00 -0.0298
458.00 -0.0298
459.00 -0.0298
460.00 -0.0297
461.00 -0.0297
462.00 -0.0297
463.00 -0.0297
464.00 -0.0296
465.00 -0.0296
466.00 -0.0296
467.00 -0.0297
468.00 -0.0296
469.00 -0.0296
470.00 -0.0296
471.00 -0.0296
472.00 -0.0296
473.00 -0.0295
474.00 -0.0295
475.00 -0.0295
476.00 -0.0294
477.00 -0.0295
478.00 -0.0295
479.00 -0.0294
480.00 -0.0293
481.00 -0.0294
482.00 -0.0293
483.00 -0.0293
484.00 -0.0293
485.00 -0.0293
486.00 -0.0292
487.00 -0.0293
488.00 -0.0292
489.00 -0.0291
490.00 -0.0290
491.00 -0.0291
492.00 -0.0290
493.00 -0.0290
494.00 -0.0290
495.00 -0.0289
496.00 -0.0289
497.00 -0.0288
498.00 -0.0288
499.00 -0.0288
500.00 -0.0288
501.00 -0.0288
502.00 -0.0288
503.00 -0.0287
504.00 -0.0287
505.00 -0.0287
506.00 -0.0287
507.00 -0.0286
508.00 -0.0285
509.00 -0.0285
510.00 -0.0283
511.00 -0.0283
512.00 -0.0282
513.00 -0.0282
514.00 -0.0281
515.00 -0.0280
516.00 -0.0280
517.00 -0.0281
518.00 -0.0280
519.00 -0.0280
520.00 -0.0280
521.00 -0.0280
522.00 -0.0279
523.00 -0.0279
524.00 -0.0279
525.00 -0.0279
526.00 -0.0279
527.00 -0.0279
528.00 -0.0278
529.00 -0.0278
530.00 -0.0277
531.00 -0.0277
532.00 -0.0278
533.00 -0.0277
534.00 -0.0276
535.00 -0.0276
536.00 -0.0275
537.00 -0.0275
538.00 -0.0274
539.00 -0.0274
540.00 -0.0273
541.00 -0.0273
542.00 -0.0273
543.00 -0.0273
544.00 -0.0272
545.00 -0.0272
546.00 -0.0271
547.00 -0.0271
548.00 -0.0270
549.00 -0.0270
550.00 -0.0269
551.00 -0.0269
552.00 -0.0268
553.00 -0.0268
554.00 -0.0268
555.00 -0.0267
556.00 -0.0267
557.00 -0.0266
558.00 -0.0266
559.00 -0.0266
560.00 -0.0266
561.00 -0.0265
562.00 -0.0265
563.00 -0.0265
564.00 -0.0264
565.00 -0.0263
566.00 -0.0263
567.00 -0.0262
568.00 -0.0262
569.00 -0.0262
570.00 -0.0262
571.00 -0.0261
572.00 -0.0260
573.00 -0.0259
574.00 -0.0258
575.00 -0.0257
576.00 -0.0256
577.00 -0.0255
578.00 -0.0254
579.00 -0.0252
580.00 -0.0250
581.00 -0.0250
582.00 -0.0248
583.00 -0.0246
584.00 -0.0244
585.00 -0.0242
586.00 -0.0240
587.00 -0.0237
588.00 -0.0235
589.00 -0.0234
590.00 -0.0231
591.00 -0.0228
592.00 -0.0225
593.00 -0.0223
594.00 -0.0220
595.00 -0.0217
596.00 -0.0213
597.00 -0.0208
598.00 -0.0203
599.00 -0.0197
600.00 -0.0191
601.00 -0.0187
602.00 -0.0183
603.00 -0.0180
604.00 -0.0178
605.00 -0.0177
606.00 -0.0175
607.00 -0.0175
608.00 -0.0175
609.00 -0.0174
610.00 -0.0173
611.00 -0.0173
612.00 -0.0172
613.00 -0.0172
614.00 -0.0171
615.00 -0.0170
616.00 -0.0169
617.00 -0.0169
618.00 -0.0167
619.00 -0.0168
620.00 -0.0166
621.00 -0.0166
622.00 -0.0165
623.00 -0.0164
624.00 -0.0164
625.00 -0.0163
626.00 -0.0162
627.00 -0.0162
628.00 -0.0161
629.00 -0.0160
630.00 -0.0158
631.00 -0.0158
632.00 -0.0158
633.00 -0.0156
634.00 -0.0155
635.00 -0.0155
636.00 -0.0154
637.00 -0.0153
638.00 -0.0152
639.00 -0.0151
640.00 -0.0150
641.00 -0.0150
642.00 -0.0148
643.00 -0.0147
644.00 -0.0146
645.00 -0.0145
646.00 -0.0144
647.00 -0.0143
648.00 -0.0142
649.00 -0.0141
650.00 -0.0141
651.00 -0.0140
652.00 -0.0139
653.00 -0.0137
654.00 -0.0134
655.00 -0.0131
656.00 -0.0128
657.00 -0.0125
658.00 -0.0121
659.00 -0.0119
660.00 -0.0117
661.00 -0.0116
662.00 -0.0114
663.00 -0.0114
664.00 -0.0113
665.00 -0.0112
666.00 -0.0112
667.00 -0.0111
668.00 -0.0110
669.00 -0.0110
670.00 -0.0108
671.00 -0.0107
672.00 -0.0108
673.00 -0.0108
674.00 -0.0107
675.00 -0.0105
676.00 -0.0104
677.00 -0.0104
678.00 -0.0102
679.00 -0.0100
680.00 -0.0099
681.00 -0.0098
682.00 -0.0097
683.00 -0.0095
684.00 -0.0092
685.00 -0.0090
686.00 -0.0088
687.00 -0.0086
688.00 -0.0083
689.00 -0.0080
690.00 -0.0077
691.00 -0.0073
692.00 -0.0069
693.00 -0.0065
694.00 -0.0061
695.00 -0.0058
696.00 -0.0052
697.00 -0.0046
698.00 -0.0041
699.00 -0.0036
700.00 -0.0030
701.00 -0.0023
702.00 -0.0015
703.00 -0.0008
704.00 -0.0000
705.00 0.0007
706.00 0.0016
707.00 0.0025
708.00 0.0034
709.00 0.0044
710.00 0.0054
711.00 0.0067
712.00 0.0081
713.00 0.0095
714.00 0.0111
715.00 0.0128
716.00 0.0146
717.00 0.0166
718.00 0.0186
719.00 0.0206
720.00 0.0227
721.00 0.0249
722.00 0.0272
723.00 0.0295
724.00 0.0319
725.00 0.0345
726.00 0.0373
727.00 0.0404
728.00 0.0440
729.00 0.0481
730.00 0.0527
731.00 0.0575
732.00 0.0622
733.00 0.0667
734.00 0.0708
735.00 0.0746
736.00 0.0777
737.00 0.0803
738.00 0.0823
739.00 0.0839
740.00 0.0850
741.00 0.0859
742.00 0.0864
743.00 0.0869
744.00 0.0873
745.00 0.0877
746.00 0.0880
747.00 0.0883
748.00 0.0885
749.00 0.0887
750.00 0.0889
751.00 0.0891
752.00 0.0894
753.00 0.0895
754.00 0.0897
755.00 0.0899
756.00 0.0900
757.00 0.0902
758.00 0.0902
759.00 0.0903
760.00 0.0904
761.00 0.0905
762.00 0.0905
763.00 0.0905
764.00 0.0904
765.00 0.0904
766.00 0.0903
767.00 0.0900
768.00 0.0898
769.00 0.0896
770.00 0.0893
771.00 0.0890
772.00 0.0886
773.00 0.0882
774.00 0.0876
775.00 0.0872
776.00 0.0867
777.00 0.0861
778.00 0.0856
779.00 0.0848
780.00 0.0842
781.00 0.0835
782.00 0.0827
783.00 0.0819
784.00 0.0812
785.00 0.0803
786.00 0.0794
787.00 0.0785
788.00 0.0776
789.00 0.0767
790.00 0.0758
791.00 0.0749
792.00 0.0739
793.00 0.0731
794.00 0.0721
795.00 0.0712
796.00 0.0703
797.00 0.0694
798.00 0.0685
799.00 0.0677
800.00 0.0670
801.00 0.0662
802.00 0.0657
803.00 0.0651
804.00 0.0646
805.00 0.0643
806.00 0.0639
807.00 0.0637
808.00 0.0635
809.00 0.0636
810.00 0.0636
811.00 0.0638
812.00 0.0642
813.00 0.0646
814.00 0.0651
815.00 0.0657
816.00 0.0663
817.00 0.0671
818.00 0.0681
819.00 0.0693
820.00 0.0706
821.00 0.0722
822.00 0.0740
823.00 0.0763
824.00 0.0791
825.00 0.0825
826.00 0.0864
827.00 0.0912
828.00 0.0962
829.00 0.1016
830.00 0.1070
831.00 0.1123
832.00 0.1170
833.00 0.1208
834.00 0.1243
835.00 0.1270
836.00 0.1293
837.00 0.1313
838.00 0.1330
839.00 0.1346
840.00 0.1362
841.00 0.1376
842.00 0.1391
843.00 0.1404
844.00 0.1418
845.00 0.1431
846.00 0.1445
847.00 0.1460
848.00 0.1474
849.00 0.1488
850.00 0.1503
851.00 0.1517
852.00 0.1532
853.00 0.1546
854.00 0.1560
855.00 0.1573
856.00 0.1587
857.00 0.1600
858.00 0.1614
859.00 0.1626
860.00 0.1640
861.00 0.1653
862.00 0.1667
863.00 0.1680
864.00 0.1694
865.00 0.1709
866.00 0.1724
867.00 0.1739
868.00 0.1755
869.00 0.1772
870.00 0.1790
871.00 0.1809
872.00 0.1829
873.00 0.1850
874.00 0.1871
875.00 0.1893
876.00 0.1916
877.00 0.1939
878.00 0.1964
879.00 0.1988
880.00 0.2013
881.00 0.2038
882.00 0.2063
883.00 0.2090
884.00 0.2117
885.00 0.2144
886.00 0.2170
887.00 0.2195
888.00 0.2219
889.00 0.2244
890.00 0.2269
891.00 0.2293
892.00 0.2318
893.00 0.2341
894.00 0.2364
895.00 0.2388
896.00 0.2412
897.00 0.2435
898.00 0.2459
899.00 0.2483
900.00 0.2508
901.00 0.2533
902.00 0.2559
903.00 0.2586
904.00 0.2614
905.00 0.2643
906.00 0.2672
907.00 0.2705
908.00 0.2738
909.00 0.2773
910.00 0.2810
911.00 0.2850
912.00 0.2894
913.00 0.2943
914.00 0.2994
915.00 0.3050
916.00 0.3111
917.00 0.3180
918.00 0.3256
919.00 0.3340
920.00 0.3433
921.00 0.3533
922.00 0.3642
923.00 0.3759
924.00 0.3889
925.00 0.4033
926.00 0.4193
927.00 0.4367
928.00 0.4555
929.00 0.4750
930.00 0.4945
931.00 0.5147
932.00 0.5364
933.00 0.5594
934.00 0.5841
935.00 0.6100
936.00 0.6363
937.00 0.6641
938.00 0.6934
939.00 0.7229
940.00 0.7545
941.00 0.7882
942.00 0.8221
943.00 0.8583
944.00 0.8969
945.00 0.9374
946.00 0.9826
947.00 1.0312
948.00 1.0832
949.00 1.1400
950.00 1.2001
951.00 1.2649
952.00 1.3324
953.00 1.4030
954.00 1.4748
955.00 1.5438
956.00 1.6070
957.00 1.6646
958.00 1.7146
959.00 1.7570
960.00 1.7930
961.00 1.8230
962.00 1.8479
963.00 1.8685
964.00 1.8860
965.00 1.9004
966.00 1.9128
967.00 1.9237
968.00 1.9338
969.00 1.9430
970.00 1.9513
971.00 1.9589
972.00 1.9656
973.00 1.9708
974.00 1.9753
975.00 1.9787
976.00 1.9808
977.00 1.9818
978.00 1.9812
979.00 1.9795
980.00 1.9761
981.00 1.9715
982.00 1.9658
983.00 1.9587
984.00 1.9508
985.00 1.9416
986.00 1.9315
987.00 1.9205
988.00 1.9085
989.00 1.8958
990.00 1.8822
991.00 1.8675
992.00 1.8525
993.00 1.8367
994.00 1.8204
995.00 1.8038
996.00 1.7862
997.00 1.7679
998.00 1.7495
999.00 1.7302
1000.00 1.7107
1001.00 1.6904
1002.00 1.6698
1003.00 1.6490
1004.00 1.6279
1005.00 1.6064
1006.00 1.5851
1007.00 1.5634
1008.00 1.5413
1009.00 1.5187
1010.00 1.4951
1011.00 1.4706
1012.00 1.4458
1013.00 1.4222
1014.00 1.3992
1015.00 1.3765
1016.00 1.3531
1017.00 1.3291
1018.00 1.3057
1019.00 1.2827
1020.00 1.2587
1021.00 1.2349
1022.00 1.2120
1023.00 1.1878
1024.00 1.1646
1025.00 1.1423
1026.00 1.1196
1027.00 1.0977
1028.00 1.0755
1029.00 1.0535
1030.00 1.0319
1031.00 1.0108
1032.00 0.9908
1033.00 0.9713
1034.00 0.9520
1035.00 0.9332
1036.00 0.9145
1037.00 0.8962
1038.00 0.8788
1039.00 0.8619
1040.00 0.8457
1041.00 0.8297
1042.00 0.8139
1043.00 0.7989
1044.00 0.7844
1045.00 0.7706
1046.00 0.7578
1047.00 0.7452
1048.00 0.7328
1049.00 0.7209
1050.00 0.7096
1051.00 0.6986
1052.00 0.6880
1053.00 0.6782
1054.00 0.6694
1055.00 0.6613
1056.00 0.6534
1057.00 0.6460
1058.00 0.6391
1059.00 0.6329
1060.00 0.6270
1061.00 0.6216
1062.00 0.6170
1063.00 0.6125
1064.00 0.6088
1065.00 0.6055
1066.00 0.6027
1067.00 0.6004
1068.00 0.5988
1069.00 0.5976
1070.00 0.5969
1071.00 0.5967
1072.00 0.5970
1073.00 0.5979
1074.00 0.5992
1075.00 0.6010
1076.00 0.6034
1077.00 0.6061
1078.00 0.6094
1079.00 0.6130
1080.00 0.6173
1081.00 0.6221
1082.00 0.6274
1083.00 0.6332
1084.00 0.6394
1085.00 0.6459
1086.00 0.6529
1087.00 0.6604
1088.00 0.6686
1089.00 0.6770
1090.00 0.6863
1091.00 0.6960
1092.00 0.7056
1093.00 0.7154
1094.00 0.7257
1095.00 0.7365
1096.00 0.7472
1097.00 0.7578
1098.00 0.7693
1099.00 0.7809
1100.00 0.7907
